 Detailed Percentile spectrum:
       Value   Percentile   TotalCount 1/(1-Percentile)

       0.065     0.000000            1         1.00
       0.550     0.100000         4930         1.11
       0.796     0.200000         9846         1.25
       1.035     0.300000        14772         1.43
       1.281     0.400000        19694         1.67
       1.538     0.500000        24611         2.00
       1.664     0.550000        27064         2.22
       1.802     0.600000        29529         2.50
       1.948     0.650000        32000         2.86
       2.105     0.700000        34469         3.33
       2.283     0.750000        36906         4.00
       2.391     0.775000        38142         4.44
       2.507     0.800000        39369         5.00
       2.639     0.825000        40608         5.71
       2.785     0.850000        41833         6.67
       2.957     0.875000        43064         8.00
       3.065     0.887500        43684         8.89
       3.173     0.900000        44288        10.00
       3.303     0.912500        44905        11.43
       3.485     0.925000        45521        13.33
       3.735     0.937500        46130        16.00
       3.893     0.943750        46439        17.78
       4.115     0.950000        46748        20.00
       4.371     0.956250        47055        22.86
       4.743     0.962500        47360        26.67
       5.215     0.968750        47669        32.00
       5.543     0.971875        47822        35.56
       5.855     0.975000        47975        40.00
       6.203     0.978125        48130        45.71
       6.639     0.981250        48283        53.33
       7.143     0.984375        48438        64.00
       7.471     0.985938        48515        71.11
       7.755     0.987500        48590        80.00
       8.123     0.989062        48667        91.43
       8.527     0.990625        48744       106.67
       9.039     0.992188        48821       128.00
       9.431     0.992969        48860       142.22
       9.919     0.993750        48898       160.00
      10.263     0.994531        48936       182.86
      10.911     0.995313        48975       213.33
      11.615     0.996094        49013       256.00
      12.063     0.996484        49033       284.44
      12.495     0.996875        49052       320.00
      12.807     0.997266        49071       365.71
      13.519     0.997656        49090       426.67
      15.111     0.998047        49109       512.00
      16.431     0.998242        49119       568.89
      17.567     0.998437        49129       640.00
      18.175     0.998633        49138       731.43
      19.023     0.998828        49148       853.33
      20.511     0.999023        49157      1024.00
      21.295     0.999121        49162      1137.78
      22.079     0.999219        49167      1280.00
      23.711     0.999316        49172      1462.86
      24.175     0.999414        49177      1706.67
      26.127     0.999512        49181      2048.00
      26.639     0.999561        49184      2275.56
      28.271     0.999609        49186      2560.00
      29.471     0.999658        49189      2925.71
      30.703     0.999707        49191      3413.33
      36.863     0.999756        49193      4096.00
      38.367     0.999780        49195      4551.11
      38.687     0.999805        49196      5120.00
      39.263     0.999829        49197      5851.43
      39.743     0.999854        49198      6826.67
      40.447     0.999878        49199      8192.00
      40.543     0.999890        49200      9102.22
      40.735     0.999902        49201     10240.00
      40.735     0.999915        49201     11702.86
      40.959     0.999927        49202     13653.33
      40.959     0.999939        49202     16384.00
      40.991     0.999945        49203     18204.44
      40.991     0.999951        49203     20480.00
      40.991     0.999957        49203     23405.71
      41.055     0.999963        49204     27306.67
      41.055     0.999969        49204     32768.00
      41.055     0.999973        49204     36408.89
      41.055     0.999976        49204     40960.00
      41.055     0.999979        49204     46811.43
      41.087     0.999982        49205     54613.33
      41.087     1.000000        49205          inf

