  Detailed Percentile spectrum:
       Value   Percentile   TotalCount 1/(1-Percentile)

       0.243     0.000000            1         1.00
       6.379     0.100000         1500         1.11
      11.663     0.200000         3002         1.25
      15.567     0.300000         4499         1.43
      28.783     0.400000         5998         1.67
      68.799     0.500000         7502         2.00
      87.999     0.550000         8251         2.22
     106.175     0.600000         8998         2.50
     140.031     0.650000         9751         2.86
     164.351     0.700000        10517         3.33
     168.575     0.750000        11259         4.00
     173.183     0.775000        11629         4.44
     185.599     0.800000        11997         5.00
     209.535     0.825000        12372         5.71
     217.343     0.850000        12746         6.67
     223.871     0.875000        13124         8.00
     227.967     0.887500        13310         8.89
     231.551     0.900000        13501        10.00
     242.559     0.912500        13689        11.43
     246.143     0.925000        13880        13.33
     251.263     0.937500        14058        16.00
     253.951     0.943750        14153        17.78
     258.047     0.950000        14246        20.00
     261.759     0.956250        14341        22.86
     266.239     0.962500        14433        26.67
     268.543     0.968750        14542        32.00
     269.055     0.971875        14581        35.56
     269.823     0.975000        14636        40.00
     270.335     0.978125        14670        45.71
     272.895     0.981250        14718        53.33
     275.455     0.984375        14771        64.00
     275.711     0.985938        14786        71.11
     276.479     0.987500        14810        80.00
     276.991     0.989062        14839        91.43
     277.503     0.990625        14859       106.67
     278.527     0.992188        14879       128.00
     279.039     0.992969        14891       142.22
     279.551     0.993750        14902       160.00
     280.575     0.994531        14921       182.86
     280.831     0.995313        14927       213.33
     281.087     0.996094        14938       256.00
     281.343     0.996484        14945       284.44
     281.599     0.996875        14958       320.00
     281.599     0.997266        14958       365.71
     281.855     0.997656        14971       426.67
     281.855     0.998047        14971       512.00
     281.855     0.998242        14971       568.89
     282.111     0.998437        14980       640.00
     282.111     0.998633        14980       731.43
     282.111     0.998828        14980       853.33
     282.367     0.999023        14985      1024.00
     282.367     0.999121        14985      1137.78
     282.367     0.999219        14985      1280.00
     282.367     0.999316        14985      1462.86
     282.623     0.999414        14989      1706.67
     282.623     0.999512        14989      2048.00
     282.623     0.999561        14989      2275.56
     282.879     0.999609        14990      2560.00
     282.879     0.999658        14990      2925.71
     283.135     0.999707        14992      3413.33
     283.135     0.999756        14992      4096.00
     283.135     0.999780        14992      4551.11
     283.391     0.999805        14994      5120.00
     283.391     0.999829        14994      5851.43
     283.391     0.999854        14994      6826.67
     283.391     0.999878        14994      8192.00
     283.391     0.999890        14994      9102.22
     283.391     0.999902        14994     10240.00
     283.391     0.999915        14994     11702.86
     283.391     0.999927        14994     13653.33
     283.647     0.999939        14995     16384.00
     283.647     1.000000        14995          inf