 Detailed Percentile spectrum:
       Value   Percentile   TotalCount 1/(1-Percentile)

       0.148     0.000000            1         1.00
       0.558     0.100000         5103         1.11
       0.826     0.200000        10207         1.25
       1.094     0.300000        15308         1.43
       1.353     0.400000        20405         1.67
       1.639     0.500000        25517         2.00
       1.808     0.550000        28050         2.22
       2.020     0.600000        30598         2.50
       2.317     0.650000        33155         2.86
       2.971     0.700000        35700         3.33
       5.407     0.750000        38249         4.00
       7.279     0.775000        39523         4.44
      10.327     0.800000        40796         5.00
      15.967     0.825000        42071         5.71
      24.383     0.850000        43348         6.67
      37.055     0.875000        44623         8.00
      54.943     0.887500        45260         8.89
      77.631     0.900000        45896        10.00
     103.167     0.912500        46533        11.43
     139.263     0.925000        47171        13.33
     173.311     0.937500        47810        16.00
     185.087     0.943750        48128        17.78
     193.663     0.950000        48449        20.00
     203.007     0.956250        48766        22.86
     230.015     0.962500        49083        26.67
     261.631     0.968750        49405        32.00
     269.823     0.971875        49563        35.56
     275.455     0.975000        49731        40.00
     280.063     0.978125        49887        45.71
     286.207     0.981250        50043        53.33
     292.095     0.984375        50201        64.00
     295.679     0.985938        50279        71.11
     299.007     0.987500        50359        80.00
     303.359     0.989062        50441        91.43
     306.431     0.990625        50518       106.67
     310.527     0.992188        50602       128.00
     313.855     0.992969        50637       142.22
     317.183     0.993750        50680       160.00
     320.767     0.994531        50718       182.86
     323.839     0.995313        50756       213.33
     328.191     0.996094        50796       256.00
     330.751     0.996484        50816       284.44
     333.055     0.996875        50838       320.00
     335.359     0.997266        50857       365.71
     337.407     0.997656        50876       426.67
     339.711     0.998047        50896       512.00
     340.991     0.998242        50907       568.89
     342.015     0.998437        50916       640.00
     343.295     0.998633        50926       731.43
     344.319     0.998828        50938       853.33
     344.831     0.999023        50950      1024.00
     345.087     0.999121        50954      1137.78
     345.343     0.999219        50959      1280.00
     345.599     0.999316        50961      1462.86
     346.111     0.999414        50967      1706.67
     346.623     0.999512        50972      2048.00
     346.879     0.999561        50975      2275.56
     347.135     0.999609        50977      2560.00
     347.391     0.999658        50979      2925.71
     347.647     0.999707        50981      3413.33
     347.903     0.999756        50983      4096.00
     348.159     0.999780        50986      4551.11
     348.159     0.999805        50986      5120.00
     348.415     0.999829        50988      5851.43
     348.415     0.999854        50988      6826.67
     348.671     0.999878        50993      8192.00
     348.671     0.999890        50993      9102.22
     348.671     0.999902        50993     10240.00
     348.671     0.999915        50993     11702.86
     348.671     0.999927        50993     13653.33
     348.671     0.999939        50993     16384.00
     348.671     0.999945        50993     18204.44
     348.671     0.999951        50993     20480.00
     348.671     0.999957        50993     23405.71
     348.927     0.999963        50995     27306.67
     348.927     1.000000        50995          inf

