Detailed Percentile spectrum:
       Value   Percentile   TotalCount 1/(1-Percentile)

       0.042     0.000000            1         1.00
       0.701     0.100000        59127         1.11
       0.934     0.200000       118217         1.25
       1.157     0.300000       177108         1.43
       1.399     0.400000       236303         1.67
       1.715     0.500000       295325         2.00
       1.931     0.550000       324693         2.22
       2.207     0.600000       354372         2.50
       2.523     0.650000       383825         2.86
       2.943     0.700000       413338         3.33
       3.457     0.750000       442783         4.00
       3.791     0.775000       457599         4.44
       4.215     0.800000       472328         5.00
       4.855     0.825000       487079         5.71
       5.991     0.850000       501806         6.67
       8.343     0.875000       516569         8.00
      10.375     0.887500       523950         8.89
      13.367     0.900000       531321        10.00
      17.455     0.912500       538698        11.43
      22.463     0.925000       546079        13.33
      28.847     0.937500       553456        16.00
      32.799     0.943750       557166        17.78
      37.311     0.950000       560829        20.00
      42.591     0.956250       564529        22.86
      48.767     0.962500       568218        26.67
      56.415     0.968750       571899        32.00
      60.959     0.971875       573752        35.56
      66.239     0.975000       575599        40.00
      73.599     0.978125       577441        45.71
      84.223     0.981250       579283        53.33
      95.999     0.984375       581124        64.00
     101.631     0.985938       582050        71.11
     107.455     0.987500       582976        80.00
     113.535     0.989062       583895        91.43
     119.487     0.990625       584821       106.67
     125.567     0.992188       585745       128.00
     128.575     0.992969       586200       142.22
     131.967     0.993750       586660       160.00
     135.679     0.994531       587120       182.86
     139.903     0.995313       587585       213.33
     144.767     0.996094       588049       256.00
     147.839     0.996484       588271       284.44
     150.911     0.996875       588503       320.00
     154.751     0.997266       588735       365.71
     159.231     0.997656       588964       426.67
     164.607     0.998047       589196       512.00
     167.679     0.998242       589310       568.89
     170.879     0.998437       589424       640.00
     175.231     0.998633       589540       731.43
     179.455     0.998828       589660       853.33
     183.423     0.999023       589771      1024.00
     185.727     0.999121       589829      1137.78
     188.799     0.999219       589887      1280.00
     191.359     0.999316       589943      1462.86
     194.047     0.999414       590001      1706.67
     197.631     0.999512       590058      2048.00
     199.551     0.999561       590089      2275.56
     201.727     0.999609       590116      2560.00
     204.415     0.999658       590147      2925.71
     208.767     0.999707       590174      3413.33
     213.375     0.999756       590202      4096.00
     215.807     0.999780       590218      4551.11
     217.471     0.999805       590232      5120.00
     220.031     0.999829       590246      5851.43
     222.463     0.999854       590262      6826.67
     223.743     0.999878       590274      8192.00
     224.511     0.999890       590282      9102.22
     225.791     0.999902       590289     10240.00
     226.559     0.999915       590296     11702.86
     228.095     0.999927       590304     13653.33
     229.375     0.999939       590310     16384.00
     230.527     0.999945       590314     18204.44
     232.319     0.999951       590319     20480.00
     233.727     0.999957       590321     23405.71
     236.031     0.999963       590325     27306.67
     237.823     0.999969       590329     32768.00
     238.079     0.999973       590330     36408.89
     238.591     0.999976       590333     40960.00
     238.719     0.999979       590334     46811.43
     239.103     0.999982       590336     54613.33
     240.383     0.999985       590337     65536.00
     240.895     0.999986       590338     72817.78
     242.047     0.999988       590339     81920.00
     242.687     0.999989       590340     93622.86
     243.455     0.999991       590342    109226.67
     243.455     0.999992       590342    131072.00
     243.455     0.999993       590342    145635.56
     244.223     0.999994       590343    163840.00
     244.223     0.999995       590343    187245.71
     244.351     0.999995       590344    218453.33
     244.351     0.999996       590344    262144.00
     244.351     0.999997       590344    291271.11
     244.479     0.999997       590345    327680.00
     244.479     0.999997       590345    374491.43
     244.479     0.999998       590345    436906.67
     244.479     0.999998       590345    524288.00
     244.479     0.999998       590345    582542.22
     245.503     0.999998       590346    655360.00
     245.503     1.000000       590346          inf

