 Detailed Percentile spectrum:
       Value   Percentile   TotalCount 1/(1-Percentile)

       0.095     0.000000            1         1.00
       1.213     0.100000        60775         1.11
       1.842     0.200000       121539         1.25
       2.755     0.300000       182280         1.43
       4.499     0.400000       243016         1.67
      11.455     0.500000       303768         2.00
      68.991     0.550000       334174         2.22
     198.015     0.600000       364524         2.50
     491.263     0.650000       394920         2.86
     652.287     0.700000       425344         3.33
     749.055     0.750000       455789         4.00
     793.599     0.775000       471034         4.44
     831.999     0.800000       486126         5.00
     868.351     0.825000       501255         5.71
     902.655     0.850000       516514         6.67
     938.495     0.875000       531764         8.00
     956.415     0.887500       539291         8.89
     974.847     0.900000       546844        10.00
     998.911     0.912500       554454        11.43
    1027.071     0.925000       562075        13.33
    1061.887     0.937500       569685        16.00
    1083.391     0.943750       573517        17.78
    1103.871     0.950000       577190        20.00
    1123.327     0.956250       581093        22.86
    1141.759     0.962500       584883        26.67
    1159.167     0.968750       588552        32.00
    1167.359     0.971875       590525        35.56
    1175.551     0.975000       592359        40.00
    1184.767     0.978125       594278        45.71
    1195.007     0.981250       596278        53.33
    1207.295     0.984375       598135        64.00
    1214.463     0.985938       599077        71.11
    1221.631     0.987500       599946        80.00
    1230.847     0.989062       600916        91.43
    1240.063     0.990625       601844       106.67
    1253.375     0.992188       602828       128.00
    1261.567     0.992969       603297       142.22
    1268.735     0.993750       603769       160.00
    1276.927     0.994531       604238       182.86
    1285.119     0.995313       604725       213.33
    1295.359     0.996094       605177       256.00
    1302.527     0.996484       605393       284.44
    1312.767     0.996875       605652       320.00
    1319.935     0.997266       605878       365.71
    1328.127     0.997656       606115       426.67
    1339.391     0.998047       606337       512.00
    1350.655     0.998242       606464       568.89
    1357.823     0.998437       606581       640.00
    1364.991     0.998633       606690       731.43
    1370.111     0.998828       606814       853.33
    1377.279     0.999023       606942      1024.00
    1380.351     0.999121       606991      1137.78
    1384.447     0.999219       607050      1280.00
    1390.591     0.999316       607122      1462.86
    1394.687     0.999414       607171      1706.67
    1400.831     0.999512       607233      2048.00
    1402.879     0.999561       607255      2275.56
    1406.975     0.999609       607295      2560.00
    1409.023     0.999658       607320      2925.71
    1412.095     0.999707       607349      3413.33
    1415.167     0.999756       607382      4096.00
    1416.191     0.999780       607396      4551.11
    1417.215     0.999805       607406      5120.00
    1419.263     0.999829       607424      5851.43
    1420.287     0.999854       607433      6826.67
    1423.359     0.999878       607449      8192.00
    1425.407     0.999890       607460      9102.22
    1426.431     0.999902       607464     10240.00
    1431.551     0.999915       607469     11702.86
    1438.719     0.999927       607477     13653.33
    1442.815     0.999939       607487     16384.00
    1442.815     0.999945       607487     18204.44
    1444.863     0.999951       607493     20480.00
    1445.887     0.999957       607497     23405.71
    1446.911     0.999963       607503     27306.67
    1446.911     0.999969       607503     32768.00
    1447.935     0.999973       607508     36408.89
    1447.935     0.999976       607508     40960.00
    1447.935     0.999979       607508     46811.43
    1448.959     0.999982       607511     54613.33
    1448.959     0.999985       607511     65536.00
    1449.983     0.999986       607513     72817.78
    1449.983     0.999988       607513     81920.00
    1451.007     0.999989       607516     93622.86
    1451.007     0.999991       607516    109226.67
    1451.007     0.999992       607516    131072.00
    1451.007     0.999993       607516    145635.56
    1452.031     0.999994       607518    163840.00
    1452.031     0.999995       607518    187245.71
    1452.031     0.999995       607518    218453.33
    1452.031     0.999996       607518    262144.00
    1452.031     0.999997       607518    291271.11
    1453.055     0.999997       607519    327680.00
    1453.055     0.999997       607519    374491.43
    1453.055     0.999998       607519    436906.67
    1453.055     0.999998       607519    524288.00
    1453.055     0.999998       607519    582542.22
    1454.079     0.999998       607520    655360.00
    1454.079     1.000000       607520          inf
